XLabel,Wavenumber
YLabel,Absorbance
FileType,Absorbance
DisplayDirection,20300
PeakDirection,20312
649.910264,-0.000281
651.838781,-0.000283
653.767298,-0.000236
655.695815,-0.000193
657.624332,-0.000191
659.552849,-0.000208
661.481366,-0.000196
663.409883,-0.000142
665.338401,-0.000107
667.266918,-0.000165
669.195435,-0.000238
671.123952,-0.000200
673.052469,-0.000122
674.980986,-0.000091
676.909503,-0.000120
678.838020,-0.000180
680.766537,-0.000209
682.695055,-0.000172
684.623572,-0.000105
686.552089,-0.000080
688.480606,-0.000131
690.409123,-0.000209
692.337640,-0.000232
694.266157,-0.000181
696.194674,-0.000123
698.123191,-0.000091
700.051708,-0.000037
701.980226,0.000111
703.908743,0.000407
705.837260,0.000894
707.765777,0.001519
709.694294,0.002069
711.622811,0.002305
713.551328,0.002150
715.479845,0.001718
717.408362,0.001189
719.336879,0.000698
721.265397,0.000331
723.193914,0.000113
725.122431,-0.000001
727.050948,-0.000075
728.979465,-0.000131
730.907982,-0.000167
732.836499,-0.000184
734.765016,-0.000180
736.693533,-0.000155
738.622051,-0.000142
740.550568,-0.000177
742.479085,-0.000236
744.407602,-0.000267
746.336119,-0.000255
748.264636,-0.000233
750.193153,-0.000239
752.121670,-0.000282
754.050187,-0.000329
755.978704,-0.000341
757.907222,-0.000313
759.835739,-0.000275
761.764256,-0.000266
763.692773,-0.000293
765.621290,-0.000315
767.549807,-0.000312
769.478324,-0.000312
771.406841,-0.000330
773.335358,-0.000331
775.263875,-0.000299
777.192393,-0.000275
779.120910,-0.000296
781.049427,-0.000350
782.977944,-0.000396
784.906461,-0.000408
786.834978,-0.000391
788.763495,-0.000370
790.692012,-0.000363
792.620529,-0.000385
794.549047,-0.000424
796.477564,-0.000440
798.406081,-0.000415
800.334598,-0.000394
802.263115,-0.000424
804.191632,-0.000487
806.120149,-0.000525
808.048666,-0.000517
809.977183,-0.000491
811.905700,-0.000491
813.834218,-0.000535
815.762735,-0.000588
817.691252,-0.000600
819.619769,-0.000559
821.548286,-0.000510
823.476803,-0.000500
825.405320,-0.000517
827.333837,-0.000515
829.262354,-0.000488
831.190871,-0.000462
833.119389,-0.000453
835.047906,-0.000461
836.976423,-0.000478
838.904940,-0.000478
840.833457,-0.000448
842.761974,-0.000412
844.690491,-0.000394
846.619008,-0.000397
848.547525,-0.000423
850.476043,-0.000461
852.404560,-0.000482
854.333077,-0.000486
856.261594,-0.000493
858.190111,-0.000495
860.118628,-0.000475
862.047145,-0.000451
863.975662,-0.000459
865.904179,-0.000508
867.832696,-0.000569
869.761214,-0.000591
871.689731,-0.000554
873.618248,-0.000502
875.546765,-0.000487
877.475282,-0.000509
879.403799,-0.000531
881.332316,-0.000530
883.260833,-0.000523
885.189350,-0.000524
887.117867,-0.000527
889.046385,-0.000513
890.974902,-0.000487
892.903419,-0.000464
894.831936,-0.000454
896.760453,-0.000461
898.688970,-0.000490
900.617487,-0.000535
902.546004,-0.000556
904.474521,-0.000527
906.403039,-0.000487
908.331556,-0.000484
910.260073,-0.000508
912.188590,-0.000508
914.117107,-0.000471
916.045624,-0.000440
917.974141,-0.000451
919.902658,-0.000499
921.831175,-0.000550
923.759692,-0.000568
925.688210,-0.000548
927.616727,-0.000517
929.545244,-0.000493
931.473761,-0.000458
933.402278,-0.000398
935.330795,-0.000349
937.259312,-0.000356
939.187829,-0.000404
941.116346,-0.000441
943.044863,-0.000457
944.973381,-0.000470
946.901898,-0.000479
948.830415,-0.000477
950.758932,-0.000484
952.687449,-0.000508
954.615966,-0.000522
956.544483,-0.000504
958.473000,-0.000463
960.401517,-0.000416
962.330034,-0.000385
964.258552,-0.000376
966.187069,-0.000376
968.115586,-0.000378
970.044103,-0.000394
971.972620,-0.000420
973.901137,-0.000431
975.829654,-0.000424
977.758171,-0.000420
979.686688,-0.000435
981.615206,-0.000466
983.543723,-0.000504
985.472240,-0.000529
987.400757,-0.000540
989.329274,-0.000557
991.257791,-0.000579
993.186308,-0.000588
995.114825,-0.000582
997.043342,-0.000577
998.971859,-0.000583
1000.900377,-0.000596
1002.828894,-0.000616
1004.757411,-0.000644
1006.685928,-0.000677
1008.614445,-0.000687
1010.542962,-0.000661
1012.471479,-0.000624
1014.399996,-0.000605
1016.328513,-0.000601
1018.257030,-0.000597
1020.185548,-0.000572
1022.114065,-0.000480
1024.042582,-0.000304
1025.971099,-0.000137
1027.899616,-0.000127
1029.828133,-0.000293
1031.756650,-0.000505
1033.685167,-0.000651
1035.613684,-0.000717
1037.542202,-0.000736
1039.470719,-0.000731
1041.399236,-0.000719
1043.327753,-0.000725
1045.256270,-0.000758
1047.184787,-0.000793
1049.113304,-0.000800
1051.041821,-0.000787
1052.970338,-0.000775
1054.898855,-0.000781
1056.827373,-0.000808
1058.755890,-0.000822
1060.684407,-0.000763
1062.612924,-0.000635
1064.541441,-0.000483
1066.469958,-0.000307
1068.398475,-0.000112
1070.326992,-0.000013
1072.255509,-0.000120
1074.184026,-0.000366
1076.112544,-0.000592
1078.041061,-0.000700
1079.969578,-0.000713
1081.898095,-0.000717
1083.826612,-0.000737
1085.755129,-0.000731
1087.683646,-0.000698
1089.612163,-0.000644
1091.540680,-0.000533
1093.469198,-0.000355
1095.397715,-0.000170
1097.326232,-0.000047
1099.254749,0.000006
1101.183266,0.000038
1103.111783,0.000141
1105.040300,0.000385
1106.968817,0.000767
1108.897334,0.001200
1110.825851,0.001530
1112.754369,0.001671
1114.682886,0.001668
1116.611403,0.001567
1118.539920,0.001337
1120.468437,0.000969
1122.396954,0.000542
1124.325471,0.000164
1126.253988,-0.000110
1128.182505,-0.000296
1130.111022,-0.000444
1132.039540,-0.000555
1133.968057,-0.000565
1135.896574,-0.000490
1137.825091,-0.000457
1139.753608,-0.000507
1141.682125,-0.000557
1143.610642,-0.000562
1145.539159,-0.000565
1147.467676,-0.000599
1149.396194,-0.000639
1151.324711,-0.000651
1153.253228,-0.000625
1155.181745,-0.000590
1157.110262,-0.000593
1159.038779,-0.000636
1160.967296,-0.000688
1162.895813,-0.000728
1164.824330,-0.000732
1166.752847,-0.000686
1168.681365,-0.000610
1170.609882,-0.000505
1172.538399,-0.000359
1174.466916,-0.000229
1176.395433,-0.000219
1178.323950,-0.000351
1180.252467,-0.000535
1182.180984,-0.000679
1184.109501,-0.000763
1186.038018,-0.000799
1187.966536,-0.000808
1189.895053,-0.000822
1191.823570,-0.000857
1193.752087,-0.000922
1195.680604,-0.000993
1197.609121,-0.000984
1199.537638,-0.000899
1201.466155,-0.000869
1203.394672,-0.000922
1205.323189,-0.000947
1207.251707,-0.000924
1209.180224,-0.000931
1211.108741,-0.000968
1213.037258,-0.000962
1214.965775,-0.000903
1216.894292,-0.000863
1218.822809,-0.000882
1220.751326,-0.000918
1222.679843,-0.000936
1224.608361,-0.000947
1226.536878,-0.000965
1228.465395,-0.000974
1230.393912,-0.000944
1232.322429,-0.000871
1234.250946,-0.000798
1236.179463,-0.000754
1238.107980,-0.000718
1240.036497,-0.000635
1241.965014,-0.000475
1243.893532,-0.000284
1245.822049,-0.000135
1247.750566,-0.000053
1249.679083,-0.000011
1251.607600,0.000023
1253.536117,0.000063
1255.464634,0.000115
1257.393151,0.000207
1259.321668,0.000377
1261.250185,0.000665
1263.178703,0.001139
1265.107220,0.001876
1267.035737,0.002881
1268.964254,0.004039
1270.892771,0.005118
1272.821288,0.005858
1274.749805,0.006121
1276.678322,0.005903
1278.606839,0.005290
1280.535357,0.004439
1282.463874,0.003509
1284.392391,0.002613
1286.320908,0.001843
1288.249425,0.001247
1290.177942,0.000812
1292.106459,0.000498
1294.034976,0.000264
1295.963493,0.000069
1297.892010,-0.000096
1299.820528,-0.000225
1301.749045,-0.000312
1303.677562,-0.000355
1305.606079,-0.000365
1307.534596,-0.000332
1309.463113,-0.000192
1311.391630,0.000084
1313.320147,0.000376
1315.248664,0.000474
1317.177181,0.000316
1319.105699,0.000031
1321.034216,-0.000229
1322.962733,-0.000415
1324.891250,-0.000541
1326.819767,-0.000621
1328.748284,-0.000681
1330.676801,-0.000743
1332.605318,-0.000778
1334.533835,-0.000735
1336.462353,-0.000611
1338.390870,-0.000509
1340.319387,-0.000570
1342.247904,-0.000741
1344.176421,-0.000865
1346.104938,-0.000905
1348.033455,-0.000908
1349.961972,-0.000904
1351.890489,-0.000890
1353.819006,-0.000872
1355.747524,-0.000876
1357.676041,-0.000873
1359.604558,-0.000799
1361.533075,-0.000674
1363.461592,-0.000614
1365.390109,-0.000623
1367.318626,-0.000618
1369.247143,-0.000586
1371.175660,-0.000525
1373.104177,-0.000422
1375.032695,-0.000331
1376.961212,-0.000289
1378.889729,-0.000263
1380.818246,-0.000252
1382.746763,-0.000258
1384.675280,-0.000254
1386.603797,-0.000263
1388.532314,-0.000346
1390.460831,-0.000454
1392.389349,-0.000497
1394.317866,-0.000475
1396.246383,-0.000480
1398.174900,-0.000592
1400.103417,-0.000752
1402.031934,-0.000849
1403.960451,-0.000883
1405.888968,-0.000927
1407.817485,-0.000984
1409.746002,-0.001013
1411.674520,-0.001021
1413.603037,-0.001004
1415.531554,-0.000912
1417.460071,-0.000766
1419.388588,-0.000721
1421.317105,-0.000819
1423.245622,-0.000933
1425.174139,-0.001002
1427.102656,-0.001006
1429.031173,-0.000958
1430.959691,-0.000915
1432.888208,-0.000883
1434.816725,-0.000825
1436.745242,-0.000787
1438.673759,-0.000829
1440.602276,-0.000869
1442.530793,-0.000837
1444.459310,-0.000699
1446.387827,-0.000426
1448.316344,-0.000049
1450.244862,0.000305
1452.173379,0.000571
1454.101896,0.000787
1456.030413,0.000928
1457.958930,0.000777
1459.887447,0.000504
1461.815964,0.000383
1463.744481,0.000353
1465.672998,0.000282
1467.601516,0.000186
1469.530033,0.000174
1471.458550,0.000222
1473.387067,0.000095
1475.315584,-0.000272
1477.244101,-0.000597
1479.172618,-0.000780
1481.101135,-0.000869
1483.029652,-0.000888
1484.958169,-0.000796
1486.886687,-0.000570
1488.815204,-0.000362
1490.743721,-0.000411
1492.672238,-0.000562
1494.600755,-0.000622
1496.529272,-0.000630
1498.457789,-0.000680
1500.386306,-0.000730
1502.314823,-0.000682
1504.243340,-0.000435
1506.171858,0.000067
1508.100375,0.000216
1510.028892,-0.000193
1511.957409,-0.000485
1513.885926,-0.000522
1515.814443,-0.000397
1517.742960,-0.000259
1519.671477,-0.000150
1521.599994,-0.000074
1523.528512,-0.000145
1525.457029,-0.000347
1527.385546,-0.000563
1529.314063,-0.000692
1531.242580,-0.000699
1533.171097,-0.000654
1535.099614,-0.000629
1537.028131,-0.000527
1538.956648,-0.000180
1540.885165,0.000209
1542.813683,-0.000007
1544.742200,-0.000471
1546.670717,-0.000790
1548.599234,-0.000933
1550.527751,-0.000952
1552.456268,-0.000870
1554.384785,-0.000678
1556.313302,-0.000407
1558.241819,-0.000313
1560.170336,-0.000653
1562.098854,-0.000950
1564.027371,-0.001075
1565.955888,-0.001097
1567.884405,-0.001086
1569.812922,-0.001137
1571.741439,-0.001205
1573.669956,-0.001163
1575.598473,-0.001077
1577.526990,-0.001162
1579.455508,-0.001333
1581.384025,-0.001414
1583.312542,-0.001414
1585.241059,-0.001406
1587.169576,-0.001433
1589.098093,-0.001490
1591.026610,-0.001532
1592.955127,-0.001530
1594.883644,-0.001496
1596.812161,-0.001437
1598.740679,-0.001314
1600.669196,-0.001137
1602.597713,-0.001012
1604.526230,-0.001001
1606.454747,-0.001052
1608.383264,-0.001129
1610.311781,-0.001219
1612.240298,-0.001251
1614.168815,-0.001179
1616.097332,-0.001086
1618.025850,-0.001093
1619.954367,-0.001118
1621.882884,-0.001098
1623.811401,-0.001132
1625.739918,-0.001258
1627.668435,-0.001389
1629.596952,-0.001458
1631.525469,-0.001430
1633.453986,-0.001270
1635.382504,-0.001052
1637.311021,-0.001074
1639.239538,-0.001273
1641.168055,-0.001379
1643.096572,-0.001284
1645.025089,-0.000970
1646.953606,-0.000659
1648.882123,-0.000626
1650.810640,-0.000688
1652.739157,-0.000807
1654.667675,-0.001128
1656.596192,-0.001393
1658.524709,-0.001493
1660.453226,-0.001468
1662.381743,-0.001408
1664.310260,-0.001385
1666.238777,-0.001307
1668.167294,-0.001099
1670.095811,-0.000922
1672.024328,-0.000955
1673.952846,-0.001077
1675.881363,-0.001154
1677.809880,-0.001133
1679.738397,-0.001004
1681.666914,-0.000800
1683.595431,-0.000655
1685.523948,-0.000757
1687.452465,-0.000967
1689.380982,-0.001131
1691.309500,-0.001192
1693.238017,-0.001083
1695.166534,-0.000766
1697.095051,-0.000379
1699.023568,-0.000224
1700.952085,-0.000276
1702.880602,-0.000299
1704.809119,-0.000277
1706.737636,-0.000247
1708.666153,-0.000104
1710.594671,0.000285
1712.523188,0.001004
1714.451705,0.002228
1716.380222,0.004104
1718.308739,0.005751
1720.237256,0.006444
1722.165773,0.006574
1724.094290,0.006272
1726.022807,0.005519
1727.951324,0.004469
1729.879842,0.003349
1731.808359,0.002264
1733.736876,0.001177
1735.665393,0.000337
1737.593910,-0.000090
1739.522427,-0.000301
1741.450944,-0.000442
1743.379461,-0.000528
1745.307978,-0.000540
1747.236495,-0.000530
1749.165013,-0.000678
1751.093530,-0.001028
1753.022047,-0.001314
1754.950564,-0.001418
1756.879081,-0.001425
1758.807598,-0.001426
1760.736115,-0.001457
1762.664632,-0.001521
1764.593149,-0.001571
1766.521667,-0.001540
1768.450184,-0.001413
1770.378701,-0.001254
1772.307218,-0.001231
1774.235735,-0.001393
1776.164252,-0.001546
1778.092769,-0.001598
1780.021286,-0.001607
1781.949803,-0.001643
1783.878320,-0.001708
1785.806838,-0.001753
1787.735355,-0.001710
1789.663872,-0.001545
1791.592389,-0.001377
1793.520906,-0.001396
1795.449423,-0.001523
1797.377940,-0.001600
1799.306457,-0.001638
1801.234974,-0.001723
1803.163491,-0.001856
1805.092009,-0.001944
1807.020526,-0.001931
1808.949043,-0.001861
1810.877560,-0.001853
1812.806077,-0.001951
1814.734594,-0.002063
1816.663111,-0.002113
1818.591628,-0.002104
1820.520145,-0.002052
1822.448663,-0.001965
1824.377180,-0.001868
1826.305697,-0.001794
1828.234214,-0.001783
1830.162731,-0.001884
1832.091248,-0.002040
1834.019765,-0.002135
1835.948282,-0.002156
1837.876799,-0.002141
1839.805316,-0.002075
1841.733834,-0.001937
1843.662351,-0.001815
1845.590868,-0.001850
1847.519385,-0.001999
1849.447902,-0.002141
1851.376419,-0.002233
1853.304936,-0.002277
1855.233453,-0.002288
1857.161970,-0.002268
1859.090487,-0.002224
1861.019005,-0.002190
1862.947522,-0.002164
1864.876039,-0.002088
1866.804556,-0.001954
1868.733073,-0.001925
1870.661590,-0.002088
1872.590107,-0.002268
1874.518624,-0.002352
1876.447141,-0.002364
1878.375659,-0.002350
1880.304176,-0.002333
1882.232693,-0.002331
1884.161210,-0.002349
1886.089727,-0.002344
1888.018244,-0.002293
1889.946761,-0.002247
1891.875278,-0.002249
1893.803795,-0.002272
1895.732312,-0.002315
1897.660830,-0.002378
1899.589347,-0.002414
1901.517864,-0.002399
1903.446381,-0.002357
1905.374898,-0.002306
1907.303415,-0.002267
1909.231932,-0.002284
1911.160449,-0.002361
1913.088966,-0.002416
1915.017483,-0.002390
1916.946001,-0.002308
1918.874518,-0.002235
1920.803035,-0.002205
1922.731552,-0.002245
1924.660069,-0.002350
1926.588586,-0.002440
1928.517103,-0.002464
1930.445620,-0.002454
1932.374137,-0.002459
1934.302655,-0.002485
1936.231172,-0.002507
1938.159689,-0.002493
1940.088206,-0.002432
1942.016723,-0.002363
1943.945240,-0.002356
1945.873757,-0.002414
1947.802274,-0.002491
1949.730791,-0.002555
1951.659308,-0.002586
1953.587826,-0.002582
1955.516343,-0.002556
1957.444860,-0.002533
1959.373377,-0.002525
1961.301894,-0.002524
1963.230411,-0.002504
1965.158928,-0.002465
1967.087445,-0.002460
1969.015962,-0.002521
1970.944479,-0.002601
1972.872997,-0.002652
1974.801514,-0.002678
1976.730031,-0.002693
1978.658548,-0.002691
1980.587065,-0.002675
1982.515582,-0.002663
1984.444099,-0.002661
1986.372616,-0.002637
1988.301133,-0.002575
1990.229650,-0.002519
1992.158168,-0.002527
1994.086685,-0.002590
1996.015202,-0.002642
1997.943719,-0.002659
1999.872236,-0.002674
2001.800753,-0.002717
2003.729270,-0.002773
2005.657787,-0.002806
2007.586304,-0.002800
2009.514822,-0.002779
2011.443339,-0.002760
2013.371856,-0.002728
2015.300373,-0.002689
2017.228890,-0.002691
2019.157407,-0.002749
2021.085924,-0.002811
2023.014441,-0.002841
2024.942958,-0.002852
2026.871475,-0.002866
2028.799993,-0.002877
2030.728510,-0.002864
2032.657027,-0.002836
2034.585544,-0.002832
2036.514061,-0.002850
2038.442578,-0.002857
2040.371095,-0.002839
2042.299612,-0.002819
2044.228129,-0.002819
2046.156646,-0.002830
2048.085164,-0.002844
2050.013681,-0.002864
2051.942198,-0.002884
2053.870715,-0.002909
2055.799232,-0.002942
2057.727749,-0.002956
2059.656266,-0.002928
2061.584783,-0.002885
2063.513300,-0.002870
2065.441818,-0.002900
2067.370335,-0.002952
2069.298852,-0.002984
2071.227369,-0.002984
2073.155886,-0.002969
2075.084403,-0.002957
2077.012920,-0.002955
2078.941437,-0.002963
2080.869954,-0.002982
2082.798471,-0.003001
2084.726989,-0.003011
2086.655506,-0.003015
2088.584023,-0.003021
2090.512540,-0.003032
2092.441057,-0.003041
2094.369574,-0.003038
2096.298091,-0.003027
2098.226608,-0.003027
2100.155125,-0.003043
2102.083642,-0.003052
2104.012160,-0.003048
2105.940677,-0.003051
2107.869194,-0.003069
2109.797711,-0.003072
2111.726228,-0.003049
2113.654745,-0.003017
2115.583262,-0.003007
2117.511779,-0.003031
2119.440296,-0.003068
2121.368814,-0.003085
2123.297331,-0.003081
2125.225848,-0.003090
2127.154365,-0.003123
2129.082882,-0.003156
2131.011399,-0.003169
2132.939916,-0.003166
2134.868433,-0.003156
2136.796950,-0.003149
2138.725467,-0.003162
2140.653985,-0.003193
2142.582502,-0.003211
2144.511019,-0.003196
2146.439536,-0.003166
2148.368053,-0.003151
2150.296570,-0.003162
2152.225087,-0.003191
2154.153604,-0.003226
2156.082121,-0.003256
2158.010638,-0.003271
2159.939156,-0.003270
2161.867673,-0.003269
2163.796190,-0.003275
2165.724707,-0.003279
2167.653224,-0.003271
2169.581741,-0.003252
2171.510258,-0.003232
2173.438775,-0.003221
2175.367292,-0.003224
2177.295810,-0.003242
2179.224327,-0.003269
2181.152844,-0.003296
2183.081361,-0.003313
2185.009878,-0.003323
2186.938395,-0.003328
2188.866912,-0.003320
2190.795429,-0.003304
2192.723946,-0.003298
2194.652463,-0.003299
2196.580981,-0.003287
2198.509498,-0.003277
2200.438015,-0.003307
2202.366532,-0.003366
2204.295049,-0.003404
2206.223566,-0.003394
2208.152083,-0.003366
2210.080600,-0.003356
2212.009117,-0.003362
2213.937634,-0.003353
2215.866152,-0.003324
2217.794669,-0.003302
2219.723186,-0.003305
2221.651703,-0.003331
2223.580220,-0.003359
2225.508737,-0.003377
2227.437254,-0.003383
2229.365771,-0.003385
2231.294288,-0.003381
2233.222806,-0.003377
2235.151323,-0.003379
2237.079840,-0.003381
2239.008357,-0.003365
2240.936874,-0.003336
2242.865391,-0.003314
2244.793908,-0.003307
2246.722425,-0.003311
2248.650942,-0.003314
2250.579459,-0.003296
2252.507977,-0.003261
2254.436494,-0.003241
2256.365011,-0.003249
2258.293528,-0.003256
2260.222045,-0.003239
2262.150562,-0.003221
2264.079079,-0.003216
2266.007596,-0.003211
2267.936113,-0.003194
2269.864630,-0.003185
2271.793148,-0.003198
2273.721665,-0.003222
2275.650182,-0.003245
2277.578699,-0.003263
2279.507216,-0.003254
2281.435733,-0.003222
2283.364250,-0.003209
2285.292767,-0.003263
2287.221284,-0.003380
2289.149801,-0.003506
2291.078319,-0.003584
2293.006836,-0.003627
2294.935353,-0.003690
2296.863870,-0.003782
2298.792387,-0.003857
2300.720904,-0.003897
2302.649421,-0.003936
2304.577938,-0.004009
2306.506455,-0.004126
2308.434973,-0.004277
2310.363490,-0.004415
2312.292007,-0.004494
2314.220524,-0.004552
2316.149041,-0.004671
2318.077558,-0.004870
2320.006075,-0.005098
2321.934592,-0.005274
2323.863109,-0.005349
2325.791626,-0.005377
2327.720144,-0.005438
2329.648661,-0.005525
2331.577178,-0.005579
2333.505695,-0.005598
2335.434212,-0.005660
2337.362729,-0.005826
2339.291246,-0.006041
2341.219763,-0.006155
2343.148280,-0.006038
2345.076797,-0.005732
2347.005315,-0.005473
2348.933832,-0.005427
2350.862349,-0.005588
2352.790866,-0.005889
2354.719383,-0.006269
2356.647900,-0.006647
2358.576417,-0.006919
2360.504934,-0.007032
2362.433451,-0.006955
2364.361969,-0.006678
2366.290486,-0.006302
2368.219003,-0.005975
2370.147520,-0.005701
2372.076037,-0.005397
2374.004554,-0.005065
2375.933071,-0.004780
2377.861588,-0.004574
2379.790105,-0.004411
2381.718622,-0.004246
2383.647140,-0.004085
2385.575657,-0.003962
2387.504174,-0.003885
2389.432691,-0.003843
2391.361208,-0.003831
2393.289725,-0.003841
2395.218242,-0.003851
2397.146759,-0.003846
2399.075276,-0.003832
2401.003793,-0.003832
2402.932311,-0.003866
2404.860828,-0.003915
2406.789345,-0.003941
2408.717862,-0.003945
2410.646379,-0.003964
2412.574896,-0.004005
2414.503413,-0.004036
2416.431930,-0.004041
2418.360447,-0.004039
2420.288965,-0.004034
2422.217482,-0.004026
2424.145999,-0.004027
2426.074516,-0.004037
2428.003033,-0.004040
2429.931550,-0.004039
2431.860067,-0.004047
2433.788584,-0.004076
2435.717101,-0.004113
2437.645618,-0.004125
2439.574136,-0.004106
2441.502653,-0.004073
2443.431170,-0.004051
2445.359687,-0.004061
2447.288204,-0.004088
2449.216721,-0.004092
2451.145238,-0.004071
2453.073755,-0.004066
2455.002272,-0.004097
2456.930789,-0.004141
2458.859307,-0.004182
2460.787824,-0.004217
2462.716341,-0.004231
2464.644858,-0.004206
2466.573375,-0.004168
2468.501892,-0.004157
2470.430409,-0.004184
2472.358926,-0.004212
2474.287443,-0.004213
2476.215961,-0.004203
2478.144478,-0.004207
2480.072995,-0.004226
2482.001512,-0.004246
2483.930029,-0.004250
2485.858546,-0.004238
2487.787063,-0.004236
2489.715580,-0.004242
2491.644097,-0.004231
2493.572614,-0.004226
2495.501132,-0.004280
2497.429649,-0.004373
2499.358166,-0.004421
2501.286683,-0.004390
2503.215200,-0.004322
2505.143717,-0.004268
2507.072234,-0.004250
2509.000751,-0.004271
2510.929268,-0.004314
2512.857785,-0.004358
2514.786303,-0.004375
2516.714820,-0.004353
2518.643337,-0.004312
2520.571854,-0.004274
2522.500371,-0.004248
2524.428888,-0.004249
2526.357405,-0.004277
2528.285922,-0.004298
2530.214439,-0.004304
2532.142956,-0.004322
2534.071474,-0.004356
2535.999991,-0.004381
2537.928508,-0.004382
2539.857025,-0.004374
2541.785542,-0.004387
2543.714059,-0.004416
2545.642576,-0.004426
2547.571093,-0.004409
2549.499610,-0.004388
2551.428128,-0.004382
2553.356645,-0.004387
2555.285162,-0.004392
2557.213679,-0.004411
2559.142196,-0.004450
2561.070713,-0.004483
2562.999230,-0.004490
2564.927747,-0.004468
2566.856264,-0.004436
2568.784781,-0.004427
2570.713299,-0.004448
2572.641816,-0.004473
2574.570333,-0.004469
2576.498850,-0.004449
2578.427367,-0.004458
2580.355884,-0.004498
2582.284401,-0.004522
2584.212918,-0.004522
2586.141435,-0.004524
2588.069952,-0.004526
2589.998470,-0.004523
2591.926987,-0.004523
2593.855504,-0.004522
2595.784021,-0.004506
2597.712538,-0.004489
2599.641055,-0.004499
2601.569572,-0.004549
2603.498089,-0.004617
2605.426606,-0.004659
2607.355124,-0.004645
2609.283641,-0.004601
2611.212158,-0.004582
2613.140675,-0.004592
2615.069192,-0.004598
2616.997709,-0.004612
2618.926226,-0.004658
2620.854743,-0.004701
2622.783260,-0.004706
2624.711777,-0.004684
2626.640295,-0.004669
2628.568812,-0.004674
2630.497329,-0.004682
2632.425846,-0.004672
2634.354363,-0.004649
2636.282880,-0.004636
2638.211397,-0.004655
2640.139914,-0.004708
2642.068431,-0.004750
2643.996948,-0.004736
2645.925466,-0.004678
2647.853983,-0.004621
2649.782500,-0.004604
2651.711017,-0.004655
2653.639534,-0.004758
2655.568051,-0.004854
2657.496568,-0.004892
2659.425085,-0.004862
2661.353602,-0.004803
2663.282120,-0.004764
2665.210637,-0.004760
2667.139154,-0.004773
2669.067671,-0.004796
2670.996188,-0.004818
2672.924705,-0.004825
2674.853222,-0.004814
2676.781739,-0.004790
2678.710256,-0.004773
2680.638773,-0.004788
2682.567291,-0.004838
2684.495808,-0.004903
2686.424325,-0.004950
2688.352842,-0.004947
2690.281359,-0.004901
2692.209876,-0.004857
2694.138393,-0.004848
2696.066910,-0.004882
2697.995427,-0.004948
2699.923944,-0.005003
2701.852462,-0.005005
2703.780979,-0.004967
2705.709496,-0.004935
2707.638013,-0.004943
2709.566530,-0.004963
2711.495047,-0.004950
2713.423564,-0.004918
2715.352081,-0.004911
2717.280598,-0.004930
2719.209116,-0.004957
2721.137633,-0.004985
2723.066150,-0.004999
2724.994667,-0.004992
2726.923184,-0.004970
2728.851701,-0.004941
2730.780218,-0.004925
2732.708735,-0.004942
2734.637252,-0.004976
2736.565769,-0.004993
2738.494287,-0.004988
2740.422804,-0.004989
2742.351321,-0.005002
2744.279838,-0.005008
2746.208355,-0.005022
2748.136872,-0.005075
2750.065389,-0.005162
2751.993906,-0.005228
2753.922423,-0.005231
2755.850940,-0.005187
2757.779458,-0.005146
2759.707975,-0.005126
2761.636492,-0.005122
2763.565009,-0.005127
2765.493526,-0.005130
2767.422043,-0.005130
2769.350560,-0.005140
2771.279077,-0.005158
2773.207594,-0.005158
2775.136111,-0.005154
2777.064629,-0.005177
2778.993146,-0.005218
2780.921663,-0.005241
2782.850180,-0.005231
2784.778697,-0.005203
2786.707214,-0.005170
2788.635731,-0.005154
2790.564248,-0.005189
2792.492765,-0.005277
2794.421283,-0.005341
2796.349800,-0.005316
2798.278317,-0.005244
2800.206834,-0.005205
2802.135351,-0.005212
2804.063868,-0.005232
2805.992385,-0.005250
2807.920902,-0.005259
2809.849419,-0.005242
2811.777936,-0.005221
2813.706454,-0.005231
2815.634971,-0.005239
2817.563488,-0.005181
2819.492005,-0.005081
2821.420522,-0.005027
2823.349039,-0.005055
2825.277556,-0.005105
2827.206073,-0.005111
2829.134590,-0.005077
2831.063107,-0.005046
2832.991625,-0.005033
2834.920142,-0.005009
2836.848659,-0.004931
2838.777176,-0.004799
2840.705693,-0.004642
2842.634210,-0.004483
2844.562727,-0.004341
2846.491244,-0.004245
2848.419761,-0.004194
2850.348279,-0.004144
2852.276796,-0.004053
2854.205313,-0.003892
2856.133830,-0.003673
2858.062347,-0.003466
2859.990864,-0.003304
2861.919381,-0.003148
2863.847898,-0.002977
2865.776415,-0.002813
2867.704932,-0.002670
2869.633450,-0.002555
2871.561967,-0.002490
2873.490484,-0.002503
2875.419001,-0.002610
2877.347518,-0.002787
2879.276035,-0.002976
2881.204552,-0.003133
2883.133069,-0.003250
2885.061586,-0.003335
2886.990103,-0.003379
2888.918621,-0.003355
2890.847138,-0.003260
2892.775655,-0.003123
2894.704172,-0.002979
2896.632689,-0.002846
2898.561206,-0.002728
2900.489723,-0.002601
2902.418240,-0.002437
2904.346757,-0.002267
2906.275275,-0.002144
2908.203792,-0.002060
2910.132309,-0.001972
2912.060826,-0.001870
2913.989343,-0.001793
2915.917860,-0.001775
2917.846377,-0.001780
2919.774894,-0.001735
2921.703411,-0.001616
2923.631928,-0.001450
2925.560446,-0.001265
2927.488963,-0.001081
2929.417480,-0.000909
2931.345997,-0.000769
2933.274514,-0.000715
2935.203031,-0.000811
2937.131548,-0.001035
2939.060065,-0.001260
2940.988582,-0.001360
2942.917099,-0.001314
2944.845617,-0.001177
2946.774134,-0.000959
2948.702651,-0.000605
2950.631168,-0.000107
2952.559685,0.000456
2954.488202,0.000973
2956.416719,0.001321
2958.345236,0.001423
2960.273753,0.001300
2962.202271,0.001012
2964.130788,0.000591
2966.059305,0.000073
2967.987822,-0.000509
2969.916339,-0.001114
2971.844856,-0.001676
2973.773373,-0.002163
2975.701890,-0.002611
2977.630407,-0.003058
2979.558924,-0.003474
2981.487442,-0.003807
2983.415959,-0.004062
2985.344476,-0.004270
2987.272993,-0.004427
2989.201510,-0.004534
2991.130027,-0.004653
2993.058544,-0.004819
2994.987061,-0.004967
2996.915578,-0.005037
2998.844095,-0.005068
3000.772613,-0.005109
3002.701130,-0.005137
3004.629647,-0.005131
3006.558164,-0.005139
3008.486681,-0.005201
3010.415198,-0.005297
3012.343715,-0.005383
3014.272232,-0.005441
3016.200749,-0.005473
3018.129267,-0.005484
3020.057784,-0.005484
3021.986301,-0.005496
3023.914818,-0.005524
3025.843335,-0.005529
3027.771852,-0.005471
3029.700369,-0.005384
3031.628886,-0.005336
3033.557403,-0.005347
3035.485920,-0.005386
3037.414438,-0.005420
3039.342955,-0.005447
3041.271472,-0.005474
3043.199989,-0.005507
3045.128506,-0.005537
3047.057023,-0.005552
3048.985540,-0.005563
3050.914057,-0.005582
3052.842574,-0.005596
3054.771091,-0.005599
3056.699609,-0.005616
3058.628126,-0.005643
3060.556643,-0.005631
3062.485160,-0.005566
3064.413677,-0.005509
3066.342194,-0.005507
3068.270711,-0.005525
3070.199228,-0.005523
3072.127745,-0.005538
3074.056262,-0.005605
3075.984780,-0.005686
3077.913297,-0.005731
3079.841814,-0.005743
3081.770331,-0.005748
3083.698848,-0.005766
3085.627365,-0.005816
3087.555882,-0.005881
3089.484399,-0.005917
3091.412916,-0.005907
3093.341434,-0.005874
3095.269951,-0.005858
3097.198468,-0.005890
3099.126985,-0.005954
3101.055502,-0.005990
3102.984019,-0.005976
3104.912536,-0.005956
3106.841053,-0.005953
3108.769570,-0.005940
3110.698087,-0.005925
3112.626605,-0.005943
3114.555122,-0.005964
3116.483639,-0.005959
3118.412156,-0.005944
3120.340673,-0.005945
3122.269190,-0.005971
3124.197707,-0.006022
3126.126224,-0.006084
3128.054741,-0.006141
3129.983258,-0.006180
3131.911776,-0.006189
3133.840293,-0.006157
3135.768810,-0.006102
3137.697327,-0.006084
3139.625844,-0.006127
3141.554361,-0.006171
3143.482878,-0.006170
3145.411395,-0.006167
3147.339912,-0.006196
3149.268430,-0.006238
3151.196947,-0.006273
3153.125464,-0.006301
3155.053981,-0.006309
3156.982498,-0.006297
3158.911015,-0.006313
3160.839532,-0.006378
3162.768049,-0.006417
3164.696566,-0.006383
3166.625083,-0.006326
3168.553601,-0.006313
3170.482118,-0.006366
3172.410635,-0.006439
3174.339152,-0.006453
3176.267669,-0.006404
3178.196186,-0.006347
3180.124703,-0.006321
3182.053220,-0.006322
3183.981737,-0.006323
3185.910254,-0.006322
3187.838772,-0.006346
3189.767289,-0.006397
3191.695806,-0.006447
3193.624323,-0.006463
3195.552840,-0.006424
3197.481357,-0.006381
3199.409874,-0.006411
3201.338391,-0.006472
3203.266908,-0.006457
3205.195426,-0.006372
3207.123943,-0.006318
3209.052460,-0.006357
3210.980977,-0.006447
3212.909494,-0.006507
3214.838011,-0.006508
3216.766528,-0.006448
3218.695045,-0.006344
3220.623562,-0.006293
3222.552079,-0.006364
3224.480597,-0.006470
3226.409114,-0.006517
3228.337631,-0.006557
3230.266148,-0.006641
3232.194665,-0.006691
3234.123182,-0.006654
3236.051699,-0.006581
3237.980216,-0.006539
3239.908733,-0.006543
3241.837250,-0.006578
3243.765768,-0.006615
3245.694285,-0.006640
3247.622802,-0.006652
3249.551319,-0.006667
3251.479836,-0.006712
3253.408353,-0.006758
3255.336870,-0.006735
3257.265387,-0.006656
3259.193904,-0.006601
3261.122422,-0.006602
3263.050939,-0.006634
3264.979456,-0.006663
3266.907973,-0.006667
3268.836490,-0.006640
3270.765007,-0.006610
3272.693524,-0.006604
3274.622041,-0.006627
3276.550558,-0.006659
3278.479075,-0.006683
3280.407593,-0.006703
3282.336110,-0.006758
3284.264627,-0.006847
3286.193144,-0.006875
3288.121661,-0.006788
3290.050178,-0.006661
3291.978695,-0.006589
3293.907212,-0.006578
3295.835729,-0.006597
3297.764246,-0.006635
3299.692764,-0.006677
3301.621281,-0.006710
3303.549798,-0.006730
3305.478315,-0.006723
3307.406832,-0.006680
3309.335349,-0.006608
3311.263866,-0.006519
3313.192383,-0.006435
3315.120900,-0.006379
3317.049417,-0.006349
3318.977935,-0.006361
3320.906452,-0.006424
3322.834969,-0.006480
3324.763486,-0.006486
3326.692003,-0.006512
3328.620520,-0.006609
3330.549037,-0.006672
3332.477554,-0.006618
3334.406071,-0.006554
3336.334589,-0.006584
3338.263106,-0.006642
3340.191623,-0.006652
3342.120140,-0.006662
3344.048657,-0.006710
3345.977174,-0.006742
3347.905691,-0.006748
3349.834208,-0.006784
3351.762725,-0.006835
3353.691242,-0.006847
3355.619760,-0.006837
3357.548277,-0.006833
3359.476794,-0.006837
3361.405311,-0.006842
3363.333828,-0.006820
3365.262345,-0.006759
3367.190862,-0.006720
3369.119379,-0.006769
3371.047896,-0.006877
3372.976413,-0.006962
3374.904931,-0.006997
3376.833448,-0.007029
3378.761965,-0.007070
3380.690482,-0.007064
3382.618999,-0.006991
3384.547516,-0.006915
3386.476033,-0.006918
3388.404550,-0.006978
3390.333067,-0.007003
3392.261585,-0.006964
3394.190102,-0.006912
3396.118619,-0.006908
3398.047136,-0.006960
3399.975653,-0.007015
3401.904170,-0.007069
3403.832687,-0.007149
3405.761204,-0.007209
3407.689721,-0.007206
3409.618238,-0.007175
3411.546756,-0.007164
3413.475273,-0.007190
3415.403790,-0.007224
3417.332307,-0.007182
3419.260824,-0.007034
3421.189341,-0.006905
3423.117858,-0.006936
3425.046375,-0.007073
3426.974892,-0.007149
3428.903409,-0.007108
3430.831927,-0.007053
3432.760444,-0.007095
3434.688961,-0.007212
3436.617478,-0.007304
3438.545995,-0.007315
3440.474512,-0.007246
3442.403029,-0.007121
3444.331546,-0.007017
3446.260063,-0.007043
3448.188581,-0.007208
3450.117098,-0.007369
3452.045615,-0.007408
3453.974132,-0.007341
3455.902649,-0.007271
3457.831166,-0.007267
3459.759683,-0.007300
3461.688200,-0.007333
3463.616717,-0.007377
3465.545234,-0.007448
3467.473752,-0.007551
3469.402269,-0.007656
3471.330786,-0.007676
3473.259303,-0.007588
3475.187820,-0.007486
3477.116337,-0.007427
3479.044854,-0.007351
3480.973371,-0.007248
3482.901888,-0.007208
3484.830405,-0.007248
3486.758923,-0.007306
3488.687440,-0.007365
3490.615957,-0.007417
3492.544474,-0.007416
3494.472991,-0.007374
3496.401508,-0.007360
3498.330025,-0.007348
3500.258542,-0.007230
3502.187059,-0.007053
3504.115577,-0.006990
3506.044094,-0.007057
3507.972611,-0.007141
3509.901128,-0.007216
3511.829645,-0.007299
3513.758162,-0.007375
3515.686679,-0.007434
3517.615196,-0.007455
3519.543713,-0.007360
3521.472230,-0.007128
3523.400748,-0.006917
3525.329265,-0.006882
3527.257782,-0.006990
3529.186299,-0.007152
3531.114816,-0.007284
3533.043333,-0.007315
3534.971850,-0.007304
3536.900367,-0.007372
3538.828884,-0.007464
3540.757401,-0.007372
3542.685919,-0.007037
3544.614436,-0.006724
3546.542953,-0.006724
3548.471470,-0.006883
3550.399987,-0.006974
3552.328504,-0.007084
3554.257021,-0.007279
3556.185538,-0.007400
3558.114055,-0.007376
3560.042572,-0.007291
3561.971090,-0.007107
3563.899607,-0.006711
3565.828124,-0.006346
3567.756641,-0.006543
3569.685158,-0.007084
3571.613675,-0.007444
3573.542192,-0.007557
3575.470709,-0.007553
3577.399226,-0.007539
3579.327744,-0.007549
3581.256261,-0.007515
3583.184778,-0.007320
3585.113295,-0.006959
3587.041812,-0.006688
3588.970329,-0.006765
3590.898846,-0.006958
3592.827363,-0.006994
3594.755880,-0.006902
3596.684397,-0.006825
3598.612915,-0.006818
3600.541432,-0.006919
3602.469949,-0.007072
3604.398466,-0.007102
3606.326983,-0.006975
3608.255500,-0.006870
3610.184017,-0.006850
3612.112534,-0.006744
3614.041051,-0.006518
3615.969568,-0.006291
3617.898086,-0.006231
3619.826603,-0.006542
3621.755120,-0.007038
3623.683637,-0.007300
3625.612154,-0.007148
3627.540671,-0.006715
3629.469188,-0.006555
3631.397705,-0.006845
3633.326222,-0.007184
3635.254740,-0.007425
3637.183257,-0.007555
3639.111774,-0.007538
3641.040291,-0.007364
3642.968808,-0.007046
3644.897325,-0.006506
3646.825842,-0.005724
3648.754359,-0.005398
3650.682876,-0.006029
3652.611393,-0.006606
3654.539911,-0.006881
3656.468428,-0.007143
3658.396945,-0.007433
3660.325462,-0.007605
3662.253979,-0.007649
3664.182496,-0.007575
3666.111013,-0.007290
3668.039530,-0.006721
3669.968047,-0.006110
3671.896564,-0.005846
3673.825082,-0.005872
3675.753599,-0.006126
3677.682116,-0.006609
3679.610633,-0.007110
3681.539150,-0.007445
3683.467667,-0.007479
3685.396184,-0.007163
3687.324701,-0.006641
3689.253218,-0.006416
3691.181736,-0.006810
3693.110253,-0.007309
3695.038770,-0.007609
3696.967287,-0.007752
3698.895804,-0.007781
3700.824321,-0.007715
3702.752838,-0.007613
3704.681355,-0.007495
3706.609872,-0.007260
3708.538389,-0.006821
3710.466907,-0.006444
3712.395424,-0.006650
3714.323941,-0.007147
3716.252458,-0.007456
3718.180975,-0.007521
3720.109492,-0.007411
3722.038009,-0.007202
3723.966526,-0.007048
3725.895043,-0.007138
3727.823560,-0.007357
3729.752078,-0.007337
3731.680595,-0.006829
3733.609112,-0.005994
3735.537629,-0.005635
3737.466146,-0.005987
3739.394663,-0.006352
3741.323180,-0.006376
3743.251697,-0.006054
3745.180214,-0.005611
3747.108732,-0.005295
3749.037249,-0.005157
3750.965766,-0.005395
3752.894283,-0.005926
3754.822800,-0.006322
3756.751317,-0.006560
3758.679834,-0.006894
3760.608351,-0.007363
3762.536868,-0.007649
3764.465385,-0.007621
3766.393903,-0.007437
3768.322420,-0.007323
3770.250937,-0.007439
3772.179454,-0.007741
3774.107971,-0.007997
3776.036488,-0.008048
3777.965005,-0.007947
3779.893522,-0.007893
3781.822039,-0.007908
3783.750556,-0.007889
3785.679074,-0.007926
3787.607591,-0.008082
3789.536108,-0.008209
3791.464625,-0.008164
3793.393142,-0.007908
3795.321659,-0.007481
3797.250176,-0.007022
3799.178693,-0.006685
3801.107210,-0.006598
3803.035728,-0.006772
3804.964245,-0.007012
3806.892762,-0.007324
3808.821279,-0.007738
3810.749796,-0.008031
3812.678313,-0.008028
3814.606830,-0.007707
3816.535347,-0.007181
3818.463864,-0.006683
3820.392381,-0.006493
3822.320899,-0.006747
3824.249416,-0.007159
3826.177933,-0.007485
3828.106450,-0.007655
3830.034967,-0.007624
3831.963484,-0.007439
3833.892001,-0.007164
3835.820518,-0.006742
3837.749035,-0.006210
3839.677552,-0.006060
3841.606070,-0.006553
3843.534587,-0.007295
3845.463104,-0.007812
3847.391621,-0.007832
3849.320138,-0.007244
3851.248655,-0.006179
3853.177172,-0.005648
3855.105689,-0.006402
3857.034206,-0.007227
3858.962723,-0.007569
3860.891241,-0.007497
3862.819758,-0.007274
3864.748275,-0.007251
3866.676792,-0.007341
3868.605309,-0.007284
3870.533826,-0.007248
3872.462343,-0.007510
3874.390860,-0.007892
3876.319377,-0.008046
3878.247895,-0.007856
3880.176412,-0.007507
3882.104929,-0.007326
3884.033446,-0.007410
3885.961963,-0.007599
3887.890480,-0.007690
3889.818997,-0.007676
3891.747514,-0.007794
3893.676031,-0.008074
3895.604548,-0.008189
3897.533066,-0.007966
3899.461583,-0.007549
3901.390100,-0.007276
3903.318617,-0.007397
3905.247134,-0.007845
3907.175651,-0.008343
3909.104168,-0.008710
3911.032685,-0.008872
3912.961202,-0.008788
3914.889719,-0.008537
3916.818237,-0.008358
3918.746754,-0.008385
3920.675271,-0.008414
3922.603788,-0.008310
3924.532305,-0.008233
3926.460822,-0.008263
3928.389339,-0.008263
3930.317856,-0.008234
3932.246373,-0.008337
3934.174891,-0.008567
3936.103408,-0.008723
3938.031925,-0.008668
3939.960442,-0.008464
3941.888959,-0.008347
3943.817476,-0.008442
3945.745993,-0.008541
3947.674510,-0.008493
3949.603027,-0.008464
3951.531544,-0.008584
3953.460062,-0.008720
3955.388579,-0.008767
3957.317096,-0.008803
3959.245613,-0.008932
3961.174130,-0.009131
3963.102647,-0.009285
3965.031164,-0.009337
3966.959681,-0.009308
3968.888198,-0.009219
3970.816715,-0.009073
3972.745233,-0.008919
3974.673750,-0.008839
3976.602267,-0.008870
3978.530784,-0.008970
3980.459301,-0.009069
3982.387818,-0.009121
3984.316335,-0.009123
3986.244852,-0.009107
3988.173369,-0.009107
3990.101887,-0.009143
3992.030404,-0.009208
3993.958921,-0.009245
3995.887438,-0.009213
3997.815955,-0.009181
3999.744472,-0.009249
4001.672989,-0.009343
